FRC,Dose,Conductivity,Temperature,pH,DO,Turbidity,ORP
0.215,1,3.03,,7.13,8.7,22.06,650
0.32,1.5,2.95,,7.03,7.7,22.06,504
0.65,2,2.99,,6.97,8,22.06,619
0.985,2.5,3.09,,6.99,7.8,22.06,651
1.33,3,3.08,,6.96,7.9,22.06,670
2.3,4,3.05,,6.98,7.8,22.06,708