FRC,Dose,Conductivity,Temperature,pH,DO,Turbidity,ORP
0.03,0.5,0.267,,7.99,8.7,0,595
0.265,1,0.295,,7.96,8.9,0,500
0.69,1.5,0.291,,7.82,8.5,0,667
1.325,2,0.3,,7.6,8.5,0,659
1.68,2.5,0.347,,7.72,8.6,0,649
2.38,3,0.328,,7.69,8.9,0,705