FRC,Dose,Conductivity,Temperature,pH,DO,Turbidity,ORP
0.14,0.5,3.25,,7.79,8.9,7.15,367
0.215,1,3.23,,7.82,8.7,7.15,388
0.51,1.5,3.28,,7.89,8.7,7.15,426
0.27,2,3.31,,7.85,8.3,7.15,276
0.32,2.5,3.28,,7.77,8.3,7.15,604
0.655,3,3.28,,7.82,8.4,7.15,518
0.99,4,3.34,,7.77,8.2,7.15,695
2.235,5,3.33,,7.68,8.2,7.15,729